> P at   411.68 seconds at    35.00 degrees for a     10.0 km deep source in the prem model with rayParam    8.603 s/deg.
    0.00    6361.0
    0.02    6356.0
    0.03    6354.9
    0.04    6353.7
    0.05    6351.4
    0.07    6346.9
    0.08    6346.6
    0.09    6344.6
    0.10    6342.7
    0.13    6338.8
    0.16    6334.9
    0.19    6331.0
    0.23    6326.0
    0.26    6321.0
    0.30    6316.0
    0.34    6311.0
    0.41    6301.0
    0.49    6291.0
    0.59    6277.5
    0.69    6264.0
    0.69    6263.3
    0.75    6256.0
    0.81    6247.2
    0.88    6238.5
    1.01    6221.0
    1.15    6203.5
    1.28    6186.0
    1.41    6168.5
    1.55    6151.0
    1.57    6148.8
    1.59    6146.5
    1.63    6142.1
    1.71    6133.1
    1.73    6130.6
    1.75    6128.2
    1.85    6117.1
    1.90    6111.6
    1.95    6106.0
    2.07    6093.3
    2.19    6080.5
    2.37    6061.0
    2.38    6060.1
    2.39    6059.2
    2.60    6037.7
    2.81    6016.0
    2.96    6001.4
    3.13    5984.5
    3.27    5971.0
    3.37    5962.3
    3.47    5953.5
    3.67    5935.6
    3.71    5932.7
    3.78    5926.9
    3.85    5921.0
    4.03    5906.2
    4.22    5891.1
    4.49    5871.0
    4.61    5861.7
    4.71    5855.1
    4.80    5848.3
    5.00    5834.8
    5.20    5821.0
    5.21    5820.4
    5.33    5812.3
    5.46    5804.2
    5.73    5787.7
    6.01    5771.0
    6.12    5764.6
    6.23    5758.2
    6.46    5745.3
    6.55    5740.7
    6.63    5736.0
    6.96    5718.5
    7.29    5701.0
    7.38    5697.6
    7.47    5694.2
    7.76    5683.3
    8.06    5672.2
    8.73    5650.0
    9.64    5623.1
   10.57    5600.0
   11.46    5581.1
   11.99    5571.6
   12.52    5562.1
   13.35    5550.0
   13.84    5544.0
   14.41    5537.9
   15.17    5534.1
   15.94    5530.4
   16.71    5526.6
   17.48    5522.8
   18.25    5526.6
   19.02    5530.4
   19.79    5534.1
   20.56    5537.9
   21.12    5544.0
   21.61    5550.0
   22.44    5562.1
   22.97    5571.6
   23.50    5581.1
   24.40    5600.0
   25.32    5623.1
   26.24    5650.0
   26.90    5672.2
   27.21    5683.3
   27.50    5694.2
   27.58    5697.6
   27.67    5701.0
   28.01    5718.5
   28.33    5736.0
   28.41    5740.7
   28.50    5745.3
   28.73    5758.2
   28.84    5764.6
   28.95    5771.0
   29.24    5787.7
   29.50    5804.2
   29.63    5812.3
   29.75    5820.4
   29.76    5821.0
   29.97    5834.8
   30.16    5848.3
   30.26    5855.1
   30.35    5861.7
   30.48    5871.0
   30.74    5891.1
   30.93    5906.2
   31.11    5921.0
   31.19    5926.9
   31.26    5932.7
   31.29    5935.6
   31.50    5953.5
   31.60    5962.3
   31.69    5971.0
   31.83    5984.5
   32.00    6001.4
   32.15    6016.0
   32.36    6037.7
   32.57    6059.2
   32.58    6060.1
   32.59    6061.0
   32.77    6080.5
   32.89    6093.3
   33.01    6106.0
   33.06    6111.6
   33.11    6117.1
   33.21    6128.2
   33.23    6130.6
   33.25    6133.1
   33.33    6142.1
   33.37    6146.5
   33.39    6148.8
   33.41    6151.0
   33.55    6168.5
   33.68    6186.0
   33.82    6203.5
   33.95    6221.0
   34.08    6238.5
   34.15    6247.2
   34.22    6256.0
   34.27    6263.3
   34.28    6264.0
   34.38    6277.5
   34.48    6291.0
   34.55    6301.0
   34.63    6311.0
   34.66    6316.0
   34.70    6321.0
   34.74    6326.0
   34.77    6331.0
   34.80    6334.9
   34.83    6338.8
   34.86    6342.7
   34.87    6344.6
   34.89    6346.6
   34.89    6346.9
   34.91    6351.4
   34.93    6353.7
   34.93    6354.9
   34.94    6356.0
   34.96    6361.0
   34.97    6363.5
   34.99    6367.3
   35.00    6369.1
   35.00    6370.1
   35.01    6371.0
> P at   479.97 seconds at    35.00 degrees for a     10.0 km deep source in the prem model with rayParam   13.489 s/deg.
    0.00    6361.0
    0.04    6356.0
    0.06    6354.9
    0.08    6353.7
    0.11    6351.4
    0.17    6346.9
    0.17    6346.6
    0.28    6344.6
    0.39    6342.7
    0.62    6338.8
    0.85    6334.9
    1.09    6331.0
    1.39    6326.0
    1.70    6321.0
    2.02    6316.0
    2.35    6311.0
    3.02    6301.0
    3.73    6291.0
    4.25    6284.2
    4.76    6277.5
    5.32    6270.8
    5.87    6264.0
    5.94    6263.3
    6.60    6256.0
    7.45    6247.2
    8.38    6238.5
    9.12    6232.7
    9.87    6226.8
   10.61    6221.0
   11.49    6216.6
   12.37    6212.2
   13.25    6207.9
   14.13    6203.5
   14.96    6202.1
   15.80    6200.8
   16.63    6199.4
   17.46    6198.1
   18.29    6199.4
   19.12    6200.8
   19.96    6202.1
   20.79    6203.5
   21.67    6207.9
   22.55    6212.2
   23.43    6216.6
   24.31    6221.0
   25.05    6226.8
   25.80    6232.7
   26.54    6238.5
   27.47    6247.2
   28.32    6256.0
   28.98    6263.3
   29.05    6264.0
   29.60    6270.8
   30.16    6277.5
   30.68    6284.2
   31.19    6291.0
   31.90    6301.0
   32.57    6311.0
   32.90    6316.0
   33.22    6321.0
   33.53    6326.0
   33.83    6331.0
   34.07    6334.9
   34.30    6338.8
   34.53    6342.7
   34.64    6344.6
   34.75    6346.6
   34.75    6346.9
   34.82    6351.4
   34.85    6353.7
   34.86    6354.9
   34.88    6356.0
   34.92    6361.0
   34.94    6363.5
   34.98    6367.3
   34.99    6369.1
   35.00    6370.1
   35.01    6371.0
> P at   480.12 seconds at    35.00 degrees for a     10.0 km deep source in the prem model with rayParam   13.432 s/deg.
    0.00    6361.0
    0.04    6356.0
    0.06    6354.9
    0.07    6353.7
    0.10    6351.4
    0.16    6346.9
    0.17    6346.6
    0.26    6344.6
    0.36    6342.7
    0.56    6338.8
    0.75    6334.9
    0.95    6331.0
    1.21    6326.0
    1.47    6321.0
    1.74    6316.0
    2.01    6311.0
    2.56    6301.0
    3.14    6291.0
    3.95    6277.5
    4.80    6264.0
    4.85    6263.3
    5.34    6256.0
    5.94    6247.2
    6.58    6238.5
    7.26    6229.7
    7.94    6221.0
    8.72    6212.2
    9.50    6203.5
   10.41    6194.7
   11.32    6186.0
   12.09    6180.2
   12.86    6174.3
   13.63    6168.5
   14.59    6164.1
   15.54    6159.7
   16.50    6155.4
   17.45    6151.0
   18.40    6155.4
   19.36    6159.7
   20.31    6164.1
   21.27    6168.5
   22.04    6174.3
   22.81    6180.2
   23.58    6186.0
   24.49    6194.7
   25.40    6203.5
   26.18    6212.2
   26.95    6221.0
   27.64    6229.7
   28.32    6238.5
   28.96    6247.2
   29.56    6256.0
   30.05    6263.3
   30.10    6264.0
   30.95    6277.5
   31.76    6291.0
   32.34    6301.0
   32.89    6311.0
   33.16    6316.0
   33.43    6321.0
   33.69    6326.0
   33.95    6331.0
   34.15    6334.9
   34.34    6338.8
   34.54    6342.7
   34.64    6344.6
   34.73    6346.6
   34.74    6346.9
   34.80    6351.4
   34.83    6353.7
   34.84    6354.9
   34.86    6356.0
   34.90    6361.0
   34.92    6363.5
   34.96    6367.3
   34.97    6369.1
   34.98    6370.1
   34.99    6371.0
